Day fraction since midnight on 	photom (volts)	photom conc (mg/L)	Source pressure (Pa)
0.6482039474	2.6954956055	0.6732262373	104142.7500000000
0.6482270835	1.9347403049	2.5639867783	104142.7500000000
0.6482502550	1.2569711208	4.6676640511	104142.7500000000
0.6482734755	1.1273337603	5.1329965591	104142.7500000000
0.6482966300	0.8763533831	6.1088771820	104142.7500000000
0.6483197664	0.1347245872	9.8308315277	104142.7500000000
0.6483429149	-1.2952042818	52.6455459595	104142.7500000000
0.6483660645	-1.2975684404	54.5790443420	104142.7500000000
0.6483892124	-1.2776863575	44.6561203003	104142.7500000000
0.6484123564	-1.2286909819	35.9172859192	104142.7500000000
0.6484355081	-1.1117786169	27.7504749298	104142.7500000000
0.6484586697	-0.9227215052	21.6845741272	104142.7500000000
0.6484818054	-0.6749259830	17.2243251801	104142.7500000000
0.6485049724	-0.3524058759	13.5280313492	104142.7500000000
0.6485281158	-0.0096742827	10.7772178650	104142.7500000000
0.6485512476	0.2593536973	9.0873126984	104142.7500000000
0.6485744131	0.4818351567	7.8962368965	104142.7500000000
0.6485975536	0.6431339979	7.1219806671	104142.7500000000
0.6486206131	0.7628911138	6.5874862671	104142.7500000000
0.6486437622	0.8555186987	6.1948699951	104142.7500000000
0.6486670044	0.9308202863	5.8878898621	104142.7500000000
0.6486900494	0.7345599532	6.7110867500	104142.7500000000
0.6487133113	0.2404285222	9.1963243484	104142.7500000000
0.6487363410	0.2421303988	9.1864671707	104142.7500000000
0.6487595057	0.4199663103	8.2118988037	104142.7500000000
0.6487827466	0.3211389780	8.7403707504	104142.7500000000
0.6488058892	-0.0254784711	10.8871307373	104142.7500000000
0.6488290460	-0.0290195961	10.9119434357	104142.7500000000
0.6488521912	-0.0295584332	10.9157247543	104142.7500000000
0.6488753352	-0.0394066349	10.9851245880	104142.7500000000
0.6488984123	-0.0445865691	11.0218439102	104142.7500000000
0.6489215450	-0.0452143885	11.0263051987	104142.7500000000
0.6489447066	-0.0456247181	11.0292215347	104142.7500000000
0.6489678372	-0.0461263545	11.0327882767	104142.7500000000
0.6489909890	-0.0469140634	11.0383920670	104142.7500000000
0.6490142263	-0.0474935398	11.0425167084	104142.7500000000
0.6490373656	-0.0476552136	11.0436687469	104142.7500000000
0.6490605128	-0.0478838496	11.0452966690	104142.7500000000
0.6490836626	-0.0485017076	11.0496978760	104142.7500000000
0.6491068073	-0.0489927083	11.0531969070	104142.7500000000
0.6491299732	-0.0489708446	11.0530414581	104142.7500000000
0.6491531207	-0.0493551046	11.0557804108	104142.7500000000
0.6491762689	-0.0483738966	11.0487871170	104142.7500000000
0.6491993744	-0.0479289852	11.0456180573	104142.7500000000
0.6492225003	-0.0477642491	11.0444450378	104142.7500000000
0.6492456372	-0.0473264158	11.0413274765	104142.7500000000
0.6492687804	-0.0447788239	11.0232095718	104142.7500000000
0.6492919141	-0.0446485952	11.0222845078	104142.7500000000
0.6493150470	-0.0498523489	11.0593271255	104142.7500000000
0.6493382065	-0.0658194795	11.1739501953	104142.7500000000
0.6493613611	-0.0924059004	11.3681173325	104142.7500000000
