Day fraction since midnight on 	photom (volts)	photom conc (mg/L)	Source pressure (Pa)
0.6557503677	-0.1038087904	11.4527006149	104142.7500000000
0.6557735059	-0.0975777730	11.4063825607	104142.7500000000
0.6557966550	-0.0973670036	11.4048194885	104142.7500000000
0.6558198094	0.0095601436	10.6452417374	104142.7500000000
0.6558429649	-0.0134534603	10.8033790588	104142.7500000000
0.6558660107	-0.0379285328	10.9746742249	104142.7500000000
0.6558892648	-0.0234601051	10.8730182648	104142.7500000000
0.6559124047	-0.0278512798	10.9037494659	104142.7500000000
0.6559355544	-0.2222393155	12.3818426132	104142.7500000000
0.6559587024	-1.2808070183	45.6515426636	104142.7500000000
0.6559818574	-1.3068884611	81.1459503174	104142.7500000000
0.6560049865	-1.3066226244	77.3731994629	104142.7500000000
0.6560281224	-1.3034876585	62.8489532471	104142.7500000000
0.6560512666	-1.2926259041	50.9247665405	104142.7500000000
0.6560744210	-1.1885819435	32.2229537964	104142.7500000000
0.6560975644	-1.1077146530	27.5660305023	104142.7500000000
0.6561207137	-0.9939007163	23.5199718475	104142.7500000000
0.6561438859	-0.8454615474	20.0428180695	104142.7500000000
0.6561670456	-0.7472426891	18.3134956360	104142.7500000000
0.6561900918	-0.6751378775	17.2273311615	104142.7500000000
0.6562132364	-0.5279365182	15.3498620987	104142.7500000000
0.6562363784	-0.4004926085	13.9914722443	104142.7500000000
0.6562596356	-0.3446992040	13.4559335709	104142.7500000000
0.6562827686	-0.2643871009	12.7371912003	104142.7500000000
0.6563059190	-0.2101734728	12.2826547623	104142.7500000000
0.6563290607	-0.1667658240	11.9346246719	104142.7500000000
0.6563522224	-0.1294095814	11.6455574036	104142.7500000000
0.6563753326	-0.1111155525	11.5073232651	104142.7500000000
0.6563984897	-0.1015328839	11.4357547760	104142.7500000000
0.6564216419	-0.0724900216	11.2222728729	104142.7500000000
0.6564447811	-0.0533095412	11.0840215683	104142.7500000000
0.6564679274	-0.0661308616	11.1761999130	104142.7500000000
0.6564910973	-0.0537228100	11.0869779587	104142.7500000000
0.6565142391	-0.0614955463	11.1427650452	104142.7500000000
0.6565374009	-0.0488396324	11.0521059036	104142.7500000000
0.6565605420	-0.0528128892	11.0804691315	104142.7500000000
0.6565836864	-0.0453345217	11.0271587372	104142.7500000000
0.6566067833	-0.0592395924	11.1265373230	104142.7500000000
0.6566299360	-0.0535415448	11.0856809616	104142.7500000000
0.6566530947	-0.0579467043	11.1172504425	104142.7500000000
